# Exposure Time: 30.000000
# Center Wavelength: 800.000000
# Grating: 149.849991 l, 800.000000 nm
# Input Slit Width: 500.000000
628.656067	749.000000
630.008057	749.000000
631.359900	786.000000
632.711800	782.000000
634.063660	783.000000
635.415466	929.000000
636.767200	986.000000
638.119000	1073.000000
639.470700	1073.000000
640.822300	1084.000000
642.173950	966.000000
643.525500	809.000000
644.877000	749.000000
646.228600	742.000000
647.579956	867.000000
648.931400	951.000000
650.282837	1006.000000
651.634155	1019.000000
652.985500	999.000000
654.336731	863.000000
655.688000	817.000000
657.039100	856.000000
658.390259	847.000000
659.741333	853.000000
661.092400	825.000000
662.443500	815.000000
663.794434	711.000000
665.145400	847.000000
666.496200	861.000000
667.847100	873.000000
669.197900	926.000000
670.548645	891.000000
671.899400	711.000000
673.250061	689.000000
674.600769	663.000000
675.951355	543.000000
677.301900	568.000000
678.652400	574.000000
680.002869	622.000000
681.353300	650.000000
682.703700	699.000000
684.054000	732.000000
685.404300	791.000000
686.754600	800.000000
688.104800	888.000000
689.454956	976.000000
690.805054	1227.000000
692.155100	1235.000000
693.505100	1240.000000
694.855100	1215.000000
696.205100	1158.000000
697.554932	1037.000000
698.904800	1113.000000
700.254600	1939.000000
701.604400	2199.000000
702.954041	2211.000000
704.303700	2258.000000
705.653300	2190.000000
707.002900	1351.000000
708.352400	1179.000000
709.701900	1215.000000
711.051331	1216.000000
712.400700	1220.000000
713.750000	1267.000000
715.099300	1325.000000
716.448547	1302.000000
717.797668	1354.000000
719.146851	1357.000000
720.495900	1443.000000
721.845000	1965.000000
723.194000	2078.000000
724.542900	2079.000000
725.891800	2031.000000
727.240700	1945.000000
728.589500	1416.000000
729.938100	1359.000000
731.286900	1367.000000
732.635500	1387.000000
733.984131	1381.000000
735.332642	1384.000000
736.681152	1321.000000
738.029600	1355.000000
739.377900	1323.000000
740.726300	1410.000000
742.074600	1433.000000
743.422800	1406.000000
744.771057	1339.000000
746.119141	1370.000000
747.467163	1185.000000
748.815300	1082.000000
750.163200	1039.000000
751.511100	1039.000000
752.859100	892.000000
754.206900	802.000000
755.554600	739.000000
756.902344	709.000000
758.249939	664.000000
759.597600	679.000000
760.945200	695.000000
762.292664	717.000000
763.640100	761.000000
764.987500	820.000000
766.334800	886.000000
767.682068	958.000000
769.029300	993.000000
770.376465	1076.000000
771.723600	1185.000000
773.070700	1223.000000
774.417664	1267.000000
775.764600	1311.000000
777.111500	1391.000000
778.458300	1399.000000
779.805054	1440.000000
781.151855	1493.000000
782.498535	1502.000000
783.845100	1523.000000
785.191650	1510.000000
786.538200	1585.000000
787.884600	1583.000000
789.231000	1618.000000
790.577300	1596.000000
791.923500	1618.000000
793.269836	1635.000000
794.615967	1607.000000
795.962036	1637.000000
797.308044	1646.000000
798.654000	1616.000000
799.999939	1585.000000
801.345800	1634.000000
802.691600	1648.000000
804.037354	1689.000000
805.383057	1701.000000
806.728638	1662.000000
808.074158	1671.000000
809.419739	1695.000000
810.765137	1647.000000
812.110535	1654.000000
813.455800	1647.000000
814.801100	1626.000000
816.146240	1624.000000
817.491455	1584.000000
818.836500	1576.000000
820.181458	1609.000000
821.526500	1573.000000
822.871338	1618.000000
824.216100	1566.000000
825.561000	1580.000000
826.905640	1624.000000
828.250244	1552.000000
829.594849	1589.000000
830.939400	1600.000000
832.283800	1521.000000
833.628200	1541.000000
834.972534	1634.000000
836.316700	1654.000000
837.661000	1643.000000
839.005100	1659.000000
840.349100	1616.000000
841.693200	1441.000000
843.037100	1425.000000
844.381000	1408.000000
845.724854	1314.000000
847.068542	1378.000000
848.412200	1354.000000
849.755859	1298.000000
851.099365	1222.000000
852.442900	1168.000000
853.786300	1049.000000
855.129639	984.000000
856.472900	975.000000
857.816162	912.000000
859.159300	846.000000
860.502300	829.000000
861.845400	824.000000
863.188354	789.000000
864.531250	795.000000
865.874100	770.000000
867.216800	765.000000
868.559448	778.000000
869.902100	3156.000000
871.244600	749.000000
872.587100	774.000000
873.929565	809.000000
875.271851	926.000000
876.614136	961.000000
877.956360	1025.000000
879.298500	1038.000000
880.640500	1119.000000
881.982544	1080.000000
883.324463	1143.000000
884.666300	1208.000000
886.008100	1188.000000
887.349800	1256.000000
888.691467	1276.000000
890.033100	1268.000000
891.374600	1270.000000
892.715942	1330.000000
894.057400	1333.000000
895.398600	1335.000000
896.739800	1362.000000
898.081055	1371.000000
899.422058	1355.000000
900.763062	1373.000000
902.104000	1402.000000
903.444900	1373.000000
904.785645	1400.000000
906.126343	1412.000000
907.467000	1416.000000
908.807556	1393.000000
910.148100	1408.000000
911.488464	1398.000000
912.828800	1426.000000
914.169100	1394.000000
915.509338	1398.000000
916.849400	1388.000000
918.189453	1405.000000
919.529400	1396.000000
920.869400	1372.000000
922.209167	1383.000000
923.548950	1348.000000
924.888600	1380.000000
926.228200	1301.000000
927.567700	1334.000000
928.907166	1316.000000
930.246600	1312.000000
931.585900	1298.000000
932.925049	1313.000000
934.264200	1267.000000
935.603333	1245.000000
936.942261	1245.000000
938.281250	1229.000000
939.620056	1208.000000
940.958800	1216.000000
942.297546	1186.000000
943.636100	1183.000000
944.974700	1178.000000
946.313200	1174.000000
947.651500	1196.000000
948.989746	1148.000000
950.328000	1182.000000
951.666100	1130.000000
953.004150	1082.000000
954.342200	1085.000000
955.680054	1095.000000
957.017900	1043.000000
958.355652	1096.000000
959.693300	1036.000000
961.030800	1033.000000
962.368400	1022.000000
963.705750	997.000000
965.043152	1025.000000
966.380432	971.000000
967.717600	988.000000
969.054700	940.000000
970.391700	975.000000
971.728638	917.000000
