# Exposure Time: 30.000000
# Center Wavelength: 800.000000
# Grating: 149.849991 l, 800.000000 nm
# Input Slit Width: 500.000000
628.656067	1719.000000
630.008057	1740.000000
631.359900	1834.000000
632.711800	1883.000000
634.063660	1870.000000
635.415466	2095.000000
636.767200	2203.000000
638.119000	2261.000000
639.470700	2349.000000
640.822300	2356.000000
642.173950	2236.000000
643.525500	2140.000000
644.877000	2136.000000
646.228600	2129.000000
647.579956	2258.000000
648.931400	2310.000000
650.282837	2369.000000
651.634155	2358.000000
652.985500	2414.000000
654.336731	2248.000000
655.688000	2192.000000
657.039100	2202.000000
658.390259	2134.000000
659.741333	2046.000000
661.092400	1975.000000
662.443500	1862.000000
663.794434	1732.000000
665.145400	1726.000000
666.496200	1570.000000
667.847100	1481.000000
669.197900	1436.000000
670.548645	1263.000000
671.899400	1041.000000
673.250061	1015.000000
674.600769	1010.000000
675.951355	934.000000
677.301900	1085.000000
678.652400	1242.000000
680.002869	1491.000000
681.353300	1704.000000
682.703700	1988.000000
684.054000	2139.000000
685.404300	2346.000000
686.754600	2484.000000
688.104800	2753.000000
689.454956	3006.000000
690.805054	3368.000000
692.155100	3500.000000
693.505100	3594.000000
694.855100	3743.000000
696.205100	3636.000000
697.554932	3573.000000
698.904800	3731.000000
700.254600	4694.000000
701.604400	5039.000000
702.954041	5129.000000
704.303700	5338.000000
705.653300	5238.000000
707.002900	4403.000000
708.352400	4255.000000
709.701900	4341.000000
711.051331	4341.000000
712.400700	4304.000000
713.750000	4499.000000
715.099300	4594.000000
716.448547	4606.000000
717.797668	4713.000000
719.146851	4719.000000
720.495900	4730.000000
721.845000	5363.000000
723.194000	5345.000000
724.542900	5447.000000
725.891800	5401.000000
727.240700	5236.000000
728.589500	4796.000000
729.938100	4740.000000
731.286900	4704.000000
732.635500	4645.000000
733.984131	4571.000000
735.332642	4592.000000
736.681152	4389.000000
738.029600	4250.000000
739.377900	4015.000000
740.726300	4028.000000
742.074600	3943.000000
743.422800	3794.000000
744.771057	3501.000000
746.119141	3266.000000
747.467163	2808.000000
748.815300	2445.000000
750.163200	2204.000000
751.511100	1909.000000
752.859100	1635.000000
754.206900	1339.000000
755.554600	1220.000000
756.902344	1054.000000
758.249939	1044.000000
759.597600	1139.000000
760.945200	1326.000000
762.292664	1505.000000
763.640100	1762.000000
764.987500	2116.000000
766.334800	2380.000000
767.682068	2705.000000
769.029300	3042.000000
770.376465	3310.000000
771.723600	3575.000000
773.070700	3841.000000
774.417664	4054.000000
775.764600	4192.000000
777.111500	4364.000000
778.458300	4508.000000
779.805054	4686.000000
781.151855	4764.000000
782.498535	4827.000000
783.845100	4975.000000
785.191650	4986.000000
786.538200	5015.000000
787.884600	5100.000000
789.231000	5191.000000
790.577300	5134.000000
791.923500	5212.000000
793.269836	5204.000000
794.615967	5228.000000
795.962036	5207.000000
797.308044	5209.000000
798.654000	5218.000000
799.999939	5282.000000
801.345800	5245.000000
802.691600	5213.000000
804.037354	5205.000000
805.383057	5156.000000
806.728638	5229.000000
808.074158	5163.000000
809.419739	5146.000000
810.765137	5097.000000
812.110535	5172.000000
813.455800	5041.000000
814.801100	4894.000000
816.146240	4939.000000
817.491455	4865.000000
818.836500	4906.000000
820.181458	4798.000000
821.526500	4780.000000
822.871338	4758.000000
824.216100	4714.000000
825.561000	4720.000000
826.905640	4659.000000
828.250244	4657.000000
829.594849	4548.000000
830.939400	4517.000000
832.283800	4422.000000
833.628200	4341.000000
834.972534	4409.000000
836.316700	4249.000000
837.661000	4240.000000
839.005100	4194.000000
840.349100	4044.000000
841.693200	3759.000000
843.037100	3649.000000
844.381000	3469.000000
845.724854	3329.000000
847.068542	3192.000000
848.412200	3021.000000
849.755859	2844.000000
851.099365	2629.000000
852.442900	2432.000000
853.786300	2111.000000
855.129639	1910.000000
856.472900	1690.000000
857.816162	1543.000000
859.159300	1316.000000
860.502300	1209.000000
861.845400	1095.000000
863.188354	998.000000
864.531250	933.000000
865.874100	962.000000
867.216800	972.000000
868.559448	1016.000000
869.902100	1121.000000
871.244600	1231.000000
872.587100	1354.000000
873.929565	1530.000000
875.271851	1836.000000
876.614136	1997.000000
877.956360	2136.000000
879.298500	2343.000000
880.640500	2498.000000
881.982544	2570.000000
883.324463	2707.000000
884.666300	2896.000000
886.008100	2953.000000
887.349800	3046.000000
888.691467	3161.000000
890.033100	3188.000000
891.374600	3243.000000
892.715942	3343.000000
894.057400	3370.000000
895.398600	3377.000000
896.739800	3454.000000
898.081055	3560.000000
899.422058	3538.000000
900.763062	3553.000000
902.104000	3614.000000
903.444900	3579.000000
904.785645	3622.000000
906.126343	3571.000000
907.467000	3585.000000
908.807556	3475.000000
910.148100	3571.000000
911.488464	3495.000000
912.828800	3477.000000
914.169100	3500.000000
915.509338	3490.000000
916.849400	3472.000000
918.189453	3443.000000
919.529400	3480.000000
920.869400	3389.000000
922.209167	3339.000000
923.548950	3366.000000
924.888600	3313.000000
926.228200	3250.000000
927.567700	3174.000000
928.907166	3203.000000
930.246600	3108.000000
931.585900	3079.000000
932.925049	2992.000000
934.264200	2939.000000
935.603333	2892.000000
936.942261	2829.000000
938.281250	2791.000000
939.620056	2771.000000
940.958800	2763.000000
942.297546	2700.000000
943.636100	2668.000000
944.974700	2714.000000
946.313200	2607.000000
947.651500	2603.000000
948.989746	2525.000000
950.328000	2504.000000
951.666100	2453.000000
953.004150	2364.000000
954.342200	2221.000000
955.680054	2308.000000
957.017900	2226.000000
958.355652	2163.000000
959.693300	2182.000000
961.030800	2124.000000
962.368400	2059.000000
963.705750	1985.000000
965.043152	2018.000000
966.380432	1974.000000
967.717600	1884.000000
969.054700	1856.000000
970.391700	1808.000000
971.728638	1754.000000
