# Exposure Time: 30.000000
# Center Wavelength: 800.000000
# Grating: 149.849991 l, 800.000000 nm
# Input Slit Width: 500.000000
628.656067	1164.000000
630.008057	1108.000000
631.359900	1142.000000
632.711800	1172.000000
634.063660	1132.000000
635.415466	1246.000000
636.767200	1235.000000
638.119000	1354.000000
639.470700	1277.000000
640.822300	1247.000000
642.173950	1057.000000
643.525500	860.000000
644.877000	724.000000
646.228600	659.000000
647.579956	766.000000
648.931400	794.000000
650.282837	866.000000
651.634155	902.000000
652.985500	948.000000
654.336731	914.000000
655.688000	980.000000
657.039100	1067.000000
658.390259	1134.000000
659.741333	1268.000000
661.092400	1334.000000
662.443500	1390.000000
663.794434	1390.000000
665.145400	1661.000000
666.496200	1694.000000
667.847100	1803.000000
669.197900	2008.000000
670.548645	1993.000000
671.899400	1878.000000
673.250061	1880.000000
674.600769	1941.000000
675.951355	1864.000000
677.301900	1942.000000
678.652400	1956.000000
680.002869	1990.000000
681.353300	2061.000000
682.703700	2107.000000
684.054000	2036.000000
685.404300	2092.000000
686.754600	2068.000000
688.104800	2229.000000
689.454956	2380.000000
690.805054	2517.000000
692.155100	2557.000000
693.505100	2538.000000
694.855100	2524.000000
696.205100	2394.000000
697.554932	2287.000000
698.904800	2335.000000
700.254600	3166.000000
701.604400	3535.000000
702.954041	3472.000000
704.303700	3541.000000
705.653300	3410.000000
707.002900	2508.000000
708.352400	2346.000000
709.701900	2268.000000
711.051331	2245.000000
712.400700	2189.000000
713.750000	2143.000000
715.099300	2088.000000
716.448547	2010.000000
717.797668	1918.000000
719.146851	1761.000000
720.495900	1674.000000
721.845000	2119.000000
723.194000	2016.000000
724.542900	1834.000000
725.891800	1740.000000
727.240700	1460.000000
728.589500	871.000000
729.938100	813.000000
731.286900	868.000000
732.635500	927.000000
733.984131	1037.000000
735.332642	1154.000000
736.681152	1316.000000
738.029600	1486.000000
739.377900	1663.000000
740.726300	1935.000000
742.074600	2187.000000
743.422800	2374.000000
744.771057	2544.000000
746.119141	2738.000000
747.467163	2674.000000
748.815300	2786.000000
750.163200	2911.000000
751.511100	3034.000000
752.859100	3024.000000
754.206900	3089.000000
755.554600	3212.000000
756.902344	3203.000000
758.249939	3261.000000
759.597600	3281.000000
760.945200	3264.000000
762.292664	3343.000000
763.640100	3357.000000
764.987500	3383.000000
766.334800	3415.000000
767.682068	3401.000000
769.029300	3522.000000
770.376465	3457.000000
771.723600	3439.000000
773.070700	3536.000000
774.417664	3508.000000
775.764600	3474.000000
777.111500	3451.000000
778.458300	3494.000000
779.805054	3497.000000
781.151855	3421.000000
782.498535	3448.000000
783.845100	3552.000000
785.191650	3469.000000
786.538200	3443.000000
787.884600	3460.000000
789.231000	3406.000000
790.577300	3418.000000
791.923500	3347.000000
793.269836	3327.000000
794.615967	3374.000000
795.962036	3293.000000
797.308044	3236.000000
798.654000	3203.000000
799.999939	3144.000000
801.345800	3161.000000
802.691600	3115.000000
804.037354	3075.000000
805.383057	3040.000000
806.728638	2945.000000
808.074158	2920.000000
809.419739	2811.000000
810.765137	2748.000000
812.110535	2634.000000
813.455800	2529.000000
814.801100	2379.000000
816.146240	2309.000000
817.491455	2125.000000
818.836500	2010.000000
820.181458	1880.000000
821.526500	1690.000000
822.871338	1592.000000
824.216100	1424.000000
825.561000	1305.000000
826.905640	1174.000000
828.250244	1096.000000
829.594849	991.000000
830.939400	905.000000
832.283800	848.000000
833.628200	789.000000
834.972534	998.000000
836.316700	1061.000000
837.661000	1095.000000
839.005100	1236.000000
840.349100	1320.000000
841.693200	1309.000000
843.037100	1406.000000
844.381000	1523.000000
845.724854	1658.000000
847.068542	1839.000000
848.412200	1988.000000
849.755859	2105.000000
851.099365	2205.000000
852.442900	2224.000000
853.786300	2230.000000
855.129639	2323.000000
856.472900	2416.000000
857.816162	2474.000000
859.159300	2531.000000
860.502300	2563.000000
861.845400	2586.000000
863.188354	2641.000000
864.531250	2670.000000
865.874100	2700.000000
867.216800	2715.000000
868.559448	2706.000000
869.902100	2711.000000
871.244600	2714.000000
872.587100	2749.000000
873.929565	2799.000000
875.271851	2862.000000
876.614136	2823.000000
877.956360	2828.000000
879.298500	2874.000000
880.640500	2903.000000
881.982544	2822.000000
883.324463	2868.000000
884.666300	3260.000000
886.008100	2828.000000
887.349800	2838.000000
888.691467	2805.000000
890.033100	2782.000000
891.374600	2824.000000
892.715942	2756.000000
894.057400	2787.000000
895.398600	2770.000000
896.739800	2720.000000
898.081055	2765.000000
899.422058	2757.000000
900.763062	2726.000000
902.104000	2692.000000
903.444900	2719.000000
904.785645	2600.000000
906.126343	2582.000000
907.467000	2572.000000
908.807556	2571.000000
910.148100	2532.000000
911.488464	2488.000000
912.828800	2474.000000
914.169100	2435.000000
915.509338	2449.000000
916.849400	2410.000000
918.189453	2383.000000
919.529400	2358.000000
920.869400	2372.000000
922.209167	2352.000000
923.548950	2245.000000
924.888600	2287.000000
926.228200	2222.000000
927.567700	2172.000000
928.907166	2078.000000
930.246600	2032.000000
931.585900	2009.000000
932.925049	1927.000000
934.264200	1901.000000
935.603333	1864.000000
936.942261	1835.000000
938.281250	1796.000000
939.620056	1769.000000
940.958800	1699.000000
942.297546	1637.000000
943.636100	1614.000000
944.974700	1537.000000
946.313200	1499.000000
947.651500	1487.000000
948.989746	1419.000000
950.328000	1321.000000
951.666100	1287.000000
953.004150	1196.000000
954.342200	1150.000000
955.680054	1086.000000
957.017900	1014.000000
958.355652	988.000000
959.693300	943.000000
961.030800	861.000000
962.368400	830.000000
963.705750	799.000000
965.043152	736.000000
966.380432	697.000000
967.717600	688.000000
969.054700	638.000000
970.391700	639.000000
971.728638	650.000000
